On-line analysis performed 20-Oct-2015 19:34:21
Volumes are given in BTPS, except VCO2 is given in STP0 and Cs is given in AP21. 
Patient: Date=, F/M=, Age=, L= cm, W= kg
BreathNo	clock	tcycle	dtcycle	dtinsp	dtexsp	dtip	dtep	VTiPat	VTePat	VTiCO2	VTeCO2	MVCO2	Pmean	Pinsp	Pexp	FIO2	RR	RSBI	Rmean	Cmean	Cs	EdiPeak	EdiMean	EdiMin	NAVALevel	PS	Edi Int	Edi Ti	P/I	Linear	TI	Comments
[]	[hh.mm]	[m]	[s]	[s]	[s]	[s]	[s]	[ml]	[ml]	[ml]	[ml]	[ml/min]	[cmH2O]	[cmH2O]	[cmH2O]	[%]	[b/min]	[b/min/l]	[cmH2O/(l/s)]	[ml/cmH2O]	[ml/cmH2O]	[uV]	[uV]	[uV]	[cmH2O/uV]	[cmH2O]	[uVs]	[s]	[s]	[-]	[s]	
    1.0000	   19.3435	    0.0352	    2.1100	    0.7000	    1.4100	    0.0000	    0.0000	  581.1242	  522.3568	    0.2241	    5.7328	  156.6438	   10.8375	   21.5611	    7.3107	   45.0000	    0.0000	    0.0000	    5.7930	   66.3673	    1.8600	   18.4758	    5.4784	    0.1472	    0.6000	   12.0000	    8.7352	    0.7000	   21.1511	    1.2280	   25.9740	 Patient: Date=, F/M=, Age=, L= cm, W= kg
    2.0000	   19.3437	    0.0657	    1.8300	    0.7500	    1.0800	    0.0000	    0.0000	  604.6806	  513.1958	    0.2485	    5.2667	  164.5307	   11.6682	   21.9778	    8.0268	   45.0000	   28.4360	   60.2206	    5.8896	   60.7557	    1.8600	   19.7088	    7.1519	    0.3312	    0.6000	   12.0000	    9.9927	    0.7500	   19.7232	    1.2291	   24.2424	
    3.0000	   19.3442	    0.1087	    2.5800	    1.1000	    1.4800	    0.0000	    0.0000	  396.1490	  472.5621	    0.2276	    5.3108	  118.2137	    9.7822	   16.4573	    8.0659	   45.0000	   30.4569	   70.0464	    4.2726	  146.3823	    1.8600	   13.1944	    3.8848	    0.4785	    0.6000	   12.0000	    7.2996	    1.1000	   18.0755	    0.9144	   16.5289	
    4.0000	   19.3445	    0.1447	    2.1600	    0.6500	    1.5100	    0.0000	    0.0000	  423.9678	  429.2160	    0.1580	    4.5507	  122.0186	    9.7174	   19.3607	    8.0529	   45.0000	   27.6074	   69.9050	    4.1709	  127.8360	    1.8600	   17.9238	    4.4553	    0.6257	    0.6000	   12.0000	    6.4750	    0.6500	   27.6815	    1.0105	   27.9720	
    5.0000	   19.3448	    0.1805	    2.1500	    0.6100	    1.5400	    0.0000	    0.0000	  368.4555	  362.6036	    0.1849	    3.5854	   94.9000	    9.1921	   14.5433	    7.9682	   45.0000	   27.6498	   82.8741	    3.0581	  170.0616	    1.8600	   10.8573	    3.2665	    0.4785	    0.6000	   12.0000	    4.5806	    0.6100	   23.7029	    1.2575	   29.8063	
    6.0000	   19.3450	    0.1963	    0.9500	    0.7400	    0.2100	    0.0000	    0.0000	  575.5518	   87.1423	    0.1915	    0.0000	  -12.0968	   13.2160	   21.3268	    8.8536	   45.0000	   27.7008	       NaN	    6.1520	   93.4981	    1.8600	   20.2977	   11.2042	    1.1225	    0.6000	   12.0000	    8.7041	    0.7400	   23.3197	    1.0536	   24.5700	
    7.0000	   19.3453	    0.2240	    1.6600	    0.1100	    1.5500	    0.0000	    0.0000	  -10.4745	  424.8895	    0.0000	    6.4690	  233.8175	    9.1830	   13.8923	    7.8641	   45.0000	   30.5603	   78.1701	    7.5776	       NaN	    1.8600	    8.0786	    2.1812	    0.3312	    0.6000	   12.0000	    0.7653	    0.1100	       NaN	       NaN	       NaN	
    8.0000	   19.3457	    0.2632	    2.3500	    0.7500	    1.6000	    0.0000	    0.0000	  608.3306	  594.0580	    0.2168	    7.2152	  178.6834	   10.5958	   22.4986	    7.9682	   45.0000	   31.2500	   57.1716	    5.3359	   86.5982	    1.8600	   20.7209	    5.5121	    0.2024	    0.6000	   12.0000	    9.6390	    0.7500	   21.4970	    1.1277	   24.2424	
    9.0000	   19.3458	    0.2770	    0.8300	    0.6700	    0.1600	    0.0000	    0.0000	  476.5083	   37.5369	    0.1884	    0.0000	  -13.6213	   12.6702	   19.5821	    9.0619	   45.0000	   30.3990	       NaN	    5.6589	   97.2965	    1.8600	   17.7950	   10.0638	    0.8649	    0.6000	   12.0000	    6.8558	    0.6700	   25.9562	    1.0455	   27.1370	
   10.0000	   19.3460	    0.2947	    1.0600	    0.0900	    0.9700	    0.0000	    0.0000	  -19.3450	  327.7591	    0.0000	    3.5908	  203.2542	    9.4702	   13.2283	    7.9682	   45.0000	   32.4910	  107.7376	    6.8154	       NaN	    1.8600	    8.4466	    2.1817	    0.6073	    0.6000	   12.0000	    0.6294	    0.0900	       NaN	       NaN	       NaN	
   11.0000	   19.3463	    0.3287	    2.0400	    0.4900	    1.5500	    0.0000	    0.0000	  336.9767	  407.5538	    0.2864	    4.5028	  124.0113	    9.4226	   17.6161	    7.2326	   45.0000	   33.9367	   90.4989	    3.4864	  126.7096	    1.8600	   14.9794	    4.1473	    0.3128	    0.6000	   12.0000	    5.0706	    0.4900	   29.5415	    1.2561	   37.1058	
   12.0000	   19.3467	    0.3622	    2.0100	    0.5200	    1.4900	    0.0000	    0.0000	  427.4458	  419.9365	    0.1984	    4.4821	  127.8724	    9.7410	   19.1524	    7.9422	   45.0000	   33.4686	   86.6189	    3.9124	  115.0448	    1.8600	   13.7649	    3.3992	    0.3496	    0.6000	   12.0000	    4.3968	    0.5200	   31.3062	    1.1169	   34.9650	
   13.0000	   19.3472	    0.4005	    2.3000	    0.6000	    1.7000	    0.0000	    0.0000	  410.6813	  397.3924	    0.2484	    4.2685	  104.8721	    9.3710	   18.5014	    7.3954	   45.0000	   33.1339	   90.6176	    3.6482	  146.1890	    1.8600	   16.9301	    4.0780	    0.1656	    0.6000	   12.0000	    5.6798	    0.6000	   29.8072	    1.0166	   30.3030	
   14.0000	   19.3475	    0.4362	    2.1400	    0.4800	    1.6600	    0.0000	    0.0000	  407.8077	  397.9505	    0.2594	    4.2436	  111.7077	    9.5445	   19.7904	    7.4865	   45.0000	   32.8522	   89.7210	    3.8289	  126.2491	    1.8600	   14.8874	    3.1854	    0.1472	    0.6000	   12.0000	    4.2941	    0.4800	   34.6697	    1.0926	   37.8788	
   15.0000	   19.3478	    0.4710	    2.0900	    0.7600	    1.3300	    0.0000	    0.0000	  690.1555	  570.7044	    0.1805	    6.5768	  183.6253	   11.7535	   24.8291	    7.8055	   45.0000	   32.3887	   61.6796	    6.9056	   61.5504	    1.8600	   21.2914	    6.3855	    0.3496	    0.6000	   12.0000	    9.8751	    0.7600	   21.5607	    1.1096	   23.9234	
   16.0000	   19.3482	    0.5050	    2.0400	    0.6500	    1.3900	    0.0000	    0.0000	  422.3018	  449.0503	    0.3057	    4.7504	  130.7270	    9.8065	   17.3036	    7.2001	   45.0000	   33.1187	   80.1562	    3.9991	   86.4414	    1.8600	   12.7896	    4.0792	    0.3128	    0.6000	   12.0000	    5.9430	    0.6500	   21.5204	    1.2998	   27.9720	
   17.0000	   19.3485	    0.5353	    1.8200	    0.4500	    1.3700	    0.0000	    0.0000	  384.2194	  389.9944	    0.2712	    3.9232	  120.3961	    9.8040	   19.5170	    7.8966	   45.0000	   33.3025	   92.8064	    3.8196	  127.4566	    1.8600	   14.6298	    3.8226	    0.2760	    0.6000	   12.0000	    4.2429	    0.4500	   34.4805	    1.1718	   40.4040	
   18.0000	   19.3488	    0.5708	    2.1300	    0.6300	    1.5000	    0.0000	    0.0000	  385.5483	  385.4606	    0.2244	    3.9141	  103.9365	    9.2243	   17.1604	    7.8771	   45.0000	   32.4484	   91.4897	    2.9086	  159.5015	    1.8600	   14.4089	    3.5538	    0.2760	    0.6000	   12.0000	    4.6634	    0.6300	   30.8979	    0.9340	   28.8600	
   19.0000	   19.3492	    0.6047	    2.0300	    0.6400	    1.3900	    0.0000	    0.0000	  452.6302	  414.6688	    0.1838	    4.4590	  126.3619	    9.8102	   20.5846	    7.9422	   45.0000	   31.7155	   83.1247	    3.9250	  147.8883	    1.8600	   19.8928	    4.8164	    0.2392	    0.6000	   12.0000	    6.2024	    0.6400	   32.0729	    0.8858	   28.4091	
   20.0000	   19.3492	    0.6165	    0.7100	    0.5900	    0.1200	    0.0000	    0.0000	  370.6793	    3.2191	    0.2288	    0.0000	  -19.3372	   10.9845	   16.2750	   10.2663	   45.0000	   32.2108	       NaN	    4.1277	  116.9064	    1.8600	   12.8264	    7.1922	    1.2329	    0.6000	   12.0000	    4.1883	    0.5900	   30.6239	    1.0063	   30.8166	
   21.0000	   19.3495	    0.6377	    1.2700	    0.2500	    1.0200	    0.0000	    0.0000	  -12.6741	  286.9094	    0.0000	    2.6564	  125.4970	    9.8650	   13.0721	    8.0919	   45.0000	   32.4006	  122.7347	    6.9022	       NaN	    1.8600	    7.5633	    2.8625	    0.4048	    0.6000	   12.0000	    1.7386	    0.2500	   43.5036	    1.6718	   72.7273	
   22.0000	   19.3497	    0.6683	    1.8400	    0.5800	    1.2600	    0.0000	    0.0000	  325.7204	  347.5038	    0.2624	    3.3026	   99.1362	    9.3295	   14.7647	    7.9878	   45.0000	   32.0700	  100.2994	    3.1136	  149.1072	    1.8600	   10.7653	    3.4701	    0.3312	    0.6000	   12.0000	    4.2080	    0.5800	   25.5827	    1.2254	   31.3480	
   23.0000	   19.3502	    0.7060	    2.2600	    0.7600	    1.5000	    0.0000	    0.0000	  566.3101	  558.3795	    0.1979	    6.8194	  175.7928	   10.6499	   23.2667	    8.0138	   45.0000	   32.3847	   63.0333	    5.5142	   74.5092	    1.8600	   22.0091	    5.6845	    0.2392	    0.6000	   12.0000	    9.4481	    0.7600	   23.2948	    1.0270	   23.9234	
   24.0000	   19.3505	    0.7410	    2.1000	    0.6400	    1.4600	    0.0000	    0.0000	  482.3957	  489.8621	    0.2387	    5.8009	  158.9206	   10.1922	   21.8736	    7.9292	   45.0000	   31.9922	   70.9791	    4.6234	  102.5028	    1.8600	   21.5122	    5.2437	    0.0920	    0.6000	   12.0000	    7.6307	    0.6400	   28.1918	    1.0077	   28.4091	
   25.0000	   19.3508	    0.7763	    2.1200	    0.7300	    1.3900	    0.0000	    0.0000	  519.1176	  482.2086	    0.2484	    5.5001	  148.6338	   10.2419	   19.5430	    8.0399	   45.0000	   32.3054	   72.8115	    4.7687	   94.7454	    1.8600	   16.7276	    4.8163	    0.3312	    0.6000	   12.0000	    7.3264	    0.7300	   22.8320	    1.0909	   24.9066	
   26.0000	   19.3512	    0.8013	    1.5000	    0.7400	    0.7600	    0.0000	    0.0000	  494.1772	  334.1843	    0.2299	    2.3502	   84.8104	   11.2771	   19.0352	    7.8706	   45.0000	   32.3371	  105.1658	    5.7444	   61.2778	    1.8600	   14.4458	    6.1325	    0.8281	    0.6000	   12.0000	    6.8958	    0.7400	   20.9487	    1.1729	   24.5700	
   27.0000	   19.3515	    0.8350	    2.0200	    0.4300	    1.5900	    0.0000	    0.0000	  196.1390	  368.9826	    0.2502	    4.5950	  129.0529	    8.8517	   13.7101	    7.9422	   45.0000	   32.8617	   96.7929	    1.9018	  155.3701	    1.8600	    9.2747	    2.4581	    0.2208	    0.6000	   12.0000	    2.9971	    0.4300	   30.9459	    1.3664	   42.2833	
   28.0000	   19.3518	    0.8708	    2.1500	    0.6300	    1.5200	    0.0000	    0.0000	  485.7047	  448.0830	    0.2270	    5.0405	  134.3300	    9.8552	   21.4309	    7.5191	   45.0000	   32.9670	   79.9615	    3.9853	  135.5960	    1.8600	   21.1074	    4.6769	    0.1288	    0.6000	   12.0000	    6.7670	    0.6300	   31.1918	    0.9252	   28.8600	
   29.0000	   19.3518	    0.8808	    0.6000	    0.4800	    0.1200	    0.0000	    0.0000	  345.6153	    3.5746	    0.1880	    0.0000	  -18.7960	   11.7918	   17.2906	    9.7845	   45.0000	   32.7869	       NaN	    5.7927	   96.3500	    1.8600	   14.4089	    8.9312	    0.7913	    0.6000	   12.0000	    4.3657	    0.4800	   33.0052	    1.1477	   37.8788	
   30.0000	   19.3522	    0.9020	    1.2700	    0.0800	    1.1900	    0.0000	    0.0000	   -6.4012	  297.0607	    0.0000	    2.7551	  130.1637	    9.0535	   12.4862	    8.0138	   45.0000	   34.7323	  127.0713	    6.0913	       NaN	    1.8600	    7.3609	    2.3369	    0.3312	    0.6000	   12.0000	    0.4710	    0.0800	       NaN	       NaN	       NaN	
   31.0000	   19.3525	    0.9413	    2.3600	    0.7700	    1.5900	    0.0000	    0.0000	  545.9825	  546.2845	    0.2281	    6.4951	  159.3308	   10.1967	   19.5430	    7.9422	   45.0000	   35.4545	   70.5363	    4.5718	  110.7740	    1.8600	   17.1877	    4.9935	    0.3864	    0.6000	   12.0000	    8.2555	    0.7700	   20.8196	    1.1342	   23.6128	
   32.0000	   19.3528	    0.9737	    1.9400	    0.6700	    1.2700	    0.0000	    0.0000	  452.0539	  425.0885	    0.2727	    4.4058	  127.8264	    9.7076	   18.8920	    7.9748	   45.0000	   35.6436	   91.1300	    3.2889	  141.0764	    1.8600	   16.8933	    4.1935	    0.1840	    0.6000	   12.0000	    5.4484	    0.6700	   31.0057	    0.8752	   27.1370	
   33.0000	   19.3532	    1.0157	    2.5200	    0.6900	    1.8300	    0.0000	    0.0000	  482.1085	  498.2342	    0.2353	    6.0816	  139.1966	    9.6358	   20.4805	    7.3954	   45.0000	   32.7381	   71.4133	    3.7805	  140.0891	    1.8600	   19.5432	    4.1587	    0.1840	    0.6000	   12.0000	    6.9349	    0.6900	   28.1810	    0.9350	   26.3505	
   34.0000	   19.3537	    1.0553	    2.3800	    0.7500	    1.6300	    0.0000	    0.0000	  670.2585	  625.8382	    0.1955	    7.6780	  188.6352	   11.0355	   23.8917	    8.0398	   45.0000	   31.6699	   54.9976	    5.8555	   81.3078	    1.8600	   19.4512	    5.3477	    0.2576	    0.6000	   12.0000	    8.3975	    0.7500	   23.1631	    1.0466	   24.2424	
   35.0000	   19.3540	    1.0937	    2.3000	    0.8300	    1.4700	    0.0000	    0.0000	  649.0512	  626.1844	    0.2359	    7.5248	  190.1440	   11.0710	   24.1130	    7.9943	   45.0000	   31.4885	   54.6525	    5.5151	   75.6739	    1.8600	   22.7820	    6.1720	    0.2576	    0.6000	   12.0000	   10.7101	    0.8300	   21.2715	    1.0298	   21.9058	
   36.0000	   19.3543	    1.1307	    2.2200	    0.7400	    1.4800	    0.0000	    0.0000	  593.0206	  602.1791	    0.2167	    7.0890	  185.7380	   10.9526	   23.9308	    7.9813	   45.0000	   31.1909	   56.2940	    5.4903	   82.0414	    1.8600	   22.6900	    6.1274	    0.2944	    0.6000	   12.0000	   10.0108	    0.7400	   22.6654	    1.0840	   24.5700	
   37.0000	   19.3548	    1.1682	    2.2500	    0.7800	    1.4700	    0.0000	    0.0000	  606.0973	  600.0133	    0.2640	    6.9175	  177.4261	   10.9304	   22.0559	    7.9292	   45.0000	   31.0442	   56.2314	    5.5732	   79.7264	    1.8600	   18.9175	    5.8524	    0.3128	    0.6000	   12.0000	   10.0114	    0.7800	   18.8960	    1.2336	   23.3100	
   38.0000	   19.3550	    1.1997	    1.8900	    0.7200	    1.1700	    0.0000	    0.0000	  497.3575	  466.8366	    0.2288	    4.6511	  140.3900	   10.6375	   19.6081	    8.0268	   45.0000	   29.9864	   69.8101	    5.1091	   77.2178	    1.8600	   15.7155	    5.3427	    0.2576	    0.6000	   12.0000	    7.6738	    0.7200	   20.4794	    1.2331	   25.2525	
   39.0000	   19.3555	    1.2415	    2.5100	    0.7500	    1.7600	    0.0000	    0.0000	  344.0640	  415.8165	    0.1509	    4.5105	  104.2139	    9.3251	   17.1604	    7.9162	   45.0000	   30.1645	   78.8414	    4.0480	  141.1136	    1.8600	   14.7586	    3.3018	    0.0736	    0.6000	   12.0000	    5.5409	    0.7500	   26.6357	    0.9101	   24.2424	
   40.0000	   19.3558	    1.2777	    2.1700	    0.7400	    1.4300	    0.0000	    0.0000	  632.7649	  542.3025	    0.1959	    6.1306	  164.0926	   11.1012	   24.5948	    7.9552	   45.0000	   26.5096	   53.1276	    6.2588	   80.8116	    1.8600	   24.5118	    6.5304	    0.2024	    0.6000	   12.0000	   10.6504	    0.7400	   23.0149	    1.0676	   24.5700	
   41.0000	   19.3562	    1.3125	    2.0900	    0.7300	    1.3600	    0.0000	    0.0000	  455.9539	  468.5927	    0.2472	    4.9606	  135.3132	   10.1653	   19.8425	    7.9943	   45.0000	   26.7592	   62.0635	    4.8101	   81.5736	    1.8600	   16.4332	    4.4687	    0.2392	    0.6000	   12.0000	    6.9834	    0.7300	   23.5319	    1.0584	   24.9066	
   42.0000	   19.3567	    1.3535	    2.4600	    0.7200	    1.7400	    0.0000	    0.0000	  519.3665	  529.7086	    0.2340	    6.1714	  144.8162	   10.2612	   20.5586	    7.9422	   45.0000	   26.5617	   54.4978	    5.7978	   74.4997	    1.8600	   17.3901	    4.4123	    0.2208	    0.6000	   12.0000	    8.2771	    0.7200	   21.0098	    1.2019	   25.2525	
   43.0000	   19.3568	    1.3817	    1.6900	    0.5800	    1.1100	    0.0000	    0.0000	  362.8957	  304.7139	    0.2203	    2.2811	   73.1652	    9.3336	   16.3792	    7.9878	   45.0000	   26.6404	   95.0183	    2.8629	  152.2564	    1.8600	   13.2680	    3.6851	    0.2944	    0.6000	   12.0000	    4.0944	    0.5800	   32.4052	    0.9674	   31.3480	
   44.0000	   19.3572	    1.4158	    2.0500	    0.5600	    1.4900	    0.0000	    0.0000	  372.2658	  391.6275	    0.2148	    3.9974	  110.7088	    9.5948	   18.1889	    7.8576	   45.0000	   27.3224	   75.8237	    4.1690	  105.7409	    1.8600	   15.0346	    4.0779	    0.3312	    0.6000	   12.0000	    5.2708	    0.5600	   28.5245	    1.1382	   32.4675	
   45.0000	   19.3575	    1.4507	    2.0900	    0.6900	    1.4000	    0.0000	    0.0000	  589.6819	  529.6678	    0.2433	    6.0659	  167.1568	   10.9499	   24.1521	    7.9552	   45.0000	   27.7393	   56.9181	    5.8721	   71.4582	    1.8600	   23.2972	    6.3173	    0.3496	    0.6000	   12.0000	    9.5335	    0.6900	   24.4373	    1.0783	   26.3505	
   46.0000	   19.3580	    1.4913	    2.4400	    0.7700	    1.6700	    0.0000	    0.0000	  385.6770	  424.2744	    0.1860	    4.6538	  109.8651	    9.3122	   14.1658	    7.9357	   45.0000	   28.0112	   71.7537	    3.6497	  147.8190	    1.8600	    8.5938	    2.8164	    0.2392	    0.6000	   12.0000	    4.9256	    0.7700	   17.4472	    1.3534	   23.6128	
   47.0000	   19.3583	    1.5260	    2.0800	    0.6400	    1.4400	    0.0000	    0.0000	  407.0419	  374.5585	    0.1979	    3.6878	  100.6710	    9.3544	   16.6135	    7.9292	   45.0000	   27.7264	   80.4514	    3.1748	  153.6557	    1.8600	   13.3600	    3.5134	    0.3128	    0.6000	   12.0000	    4.7459	    0.6400	   28.1504	    1.0092	   28.4091	
   48.0000	   19.3587	    1.5657	    2.3800	    0.6400	    1.7400	    0.0000	    0.0000	  409.0203	  409.6237	    0.2122	    4.4671	  107.2664	    9.1764	   17.3426	    7.7144	   45.0000	   27.9460	   74.1470	    2.9379	  166.8233	    1.8600	   14.5562	    3.2677	    0.2944	    0.6000	   12.0000	    4.8770	    0.6400	   29.8468	    0.9518	   28.4091	
   49.0000	   19.3590	    1.6000	    2.0600	    0.7500	    1.3100	    0.0000	    0.0000	  563.5227	  457.3531	    0.2836	    4.8669	  133.4946	   10.6179	   19.7774	    7.2131	   45.0000	   27.3224	   64.9272	    5.6771	   72.1285	    1.8600	   15.8075	    5.1152	    0.2208	    0.6000	   12.0000	    8.1249	    0.7500	   19.4557	    1.2460	   24.2424	
   50.0000	   19.3607	    1.6353	    2.1200	    0.4500	    1.6700	    0.0000	    0.0000	  375.1906	  416.9255	    0.2732	    4.8135	  128.4979	    9.5405	   19.6993	    7.3954	   45.0000	   27.8940	   72.7130	    3.2193	  153.4589	    1.8600	   15.0714	    3.3934	    0.2024	    0.6000	   12.0000	    4.0433	    0.4500	   37.2747	    1.0840	   40.4040	
   51.0000	   19.3607	    1.6667	    1.8800	    0.4600	    1.4200	    0.0000	    0.0000	  401.8144	  379.0012	    0.2468	    3.9353	  117.7155	    9.8273	   18.9181	    7.9422	   45.0000	   27.9590	   80.1753	    4.0266	  122.4616	    1.8600	   13.6177	    3.6797	    0.2392	    0.6000	   12.0000	    4.1796	    0.4600	   32.5812	    1.2131	   39.5257	
   52.0000	   19.3608	    1.7023	    2.1400	    0.6600	    1.4800	    0.0000	    0.0000	  431.5786	  409.5981	    0.2052	    4.4017	  117.6586	    9.5302	   17.6421	    7.9422	   45.0000	   28.2353	   74.9193	    3.4978	  130.3906	    1.8600	   14.5930	    3.8056	    0.3496	    0.6000	   12.0000	    5.3792	    0.6600	   27.1287	    1.0155	   27.5482	
   53.0000	   19.3608	    1.7307	    1.7000	    0.6200	    1.0800	    0.0000	    0.0000	  407.9071	  337.6180	    0.2853	    2.8641	   91.0159	    9.7267	   17.2906	    8.0659	   45.0000	   28.6670	   92.2818	    3.4948	  127.7487	    1.8600	   14.2433	    4.2174	    0.4048	    0.6000	   12.0000	    4.9437	    0.6200	   28.8113	    1.0178	   29.3255	
   54.0000	   19.3608	    1.7363	    0.3400	    0.1000	    0.2400	    0.0000	    0.0000	   -0.4610	   10.0918	   -0.0117	    0.0412	    9.3379	    9.0987	    9.6348	    8.7559	   45.0000	   28.6533	       NaN	    3.6553	  139.5703	    1.8600	    2.5763	    1.7942	    1.0121	    0.6000	   12.0000	    0.2030	    0.1000	       NaN	       NaN	       NaN	
