On-line analysis performed 13-Jan-2016 17:35:26
Volumes are given in BTPS, except VCO2 is given in STP0 and Cs is given in AP21. 
Patient: Date=, F/M=, Age=, L= cm, W= kg
BreathNo	clock	tcycle	dtcycle	dtinsp	dtexsp	dtip	dtep	VTiPat	VTePat	VTiCO2	VTeCO2	MVCO2	Pmean	Pinsp	Pexp	FIO2	RR	RSBI	Rmean	Cmean	Cs	EdiPeak	EdiMean	EdiMin	NAVALevel	PS	Edi Int	Edi Ti	P/I	Linear	TI	Comments
[]	[hh.mm]	[m]	[s]	[s]	[s]	[s]	[s]	[ml]	[ml]	[ml]	[ml]	[ml/min]	[cmH2O]	[cmH2O]	[cmH2O]	[%]	[b/min]	[b/min/l]	[cmH2O/(l/s)]	[ml/cmH2O]	[ml/cmH2O]	[uV]	[uV]	[uV]	[cmH2O/uV]	[cmH2O]	[uVs]	[s]	[s]	[-]	[s]	
    1.0000	   17.3540	    0.0685	    4.1100	    0.3300	    3.7800	    0.0000	    0.0000	  361.1688	  898.8236	    0.0694	   15.9491	  231.8204	   14.1832	   30.1022	   11.5878	   50.0000	    0.0000	    0.0000	    6.8277	   86.3319	    1.8600	   16.0467	    2.1146	    0.0000	    0.9990	   16.0000	    4.6749	    0.3300	   34.3253	    1.6051	   55.0964	 Patient: Date=, F/M=, Age=, L= cm, W= kg
    2.0000	   17.3547	    0.1320	    3.8100	    1.4000	    2.4100	    0.0000	    0.0000	 1114.5580	 1024.2865	    0.4510	   17.3542	  266.1924	   16.9634	   31.1829	   11.8157	   50.0000	   14.5985	   15.4899	    6.1664	   74.4163	    1.8600	   15.2739	    4.4081	    0.0552	    0.9990	   16.0000	   13.3153	    1.4000	   11.4709	    1.1322	   12.9870	
    3.0000	   17.3550	    0.1730	    2.4600	    0.9900	    1.4700	    0.0000	    0.0000	  758.8630	  662.2233	    0.4462	    9.3364	  216.8360	   16.0217	   27.4331	   12.2844	   50.0000	   15.1515	   24.8663	    5.0509	   76.6501	    1.8600	   13.5808	    4.2182	    0.2944	    0.9990	   16.0000	    7.2116	    0.9900	   18.8321	    0.9752	   18.3655	
    4.0000	   17.3557	    0.2447	    4.3000	    0.4400	    3.8600	    0.0000	    0.0000	  190.7157	  403.2068	    0.3611	    7.0237	   92.9661	   12.6326	   17.6942	   12.0630	   50.0000	   17.3410	   46.7419	    2.2292	  165.1361	    1.8600	    5.4471	    1.0179	    0.1656	    0.9990	   16.0000	    1.8019	    0.4400	   30.2303	    1.3669	   41.3223	
    5.0000	   17.3567	    0.3533	    6.5200	    1.1400	    5.3800	    0.0000	    0.0000	 1133.1342	 1114.3618	    0.5087	   20.0038	  179.4023	   14.6554	   35.8961	   11.7180	   50.0000	   16.3488	   15.9448	    6.0290	   78.1931	    1.8600	   22.4139	    3.0759	    0.0368	    0.9990	   16.0000	   14.5754	    1.1400	   15.3779	    1.0371	   15.9490	
    6.0000	   17.3578	    0.4588	    6.3300	    1.2600	    5.0700	    0.0000	    0.0000	 1099.7740	 1059.0246	    0.5535	   18.7384	  172.3679	   14.6441	   31.3261	   11.6920	   50.0000	   14.1509	   14.5224	    6.1604	   84.2930	    1.8600	   16.1756	    2.6139	    0.2208	    0.9990	   16.0000	   11.5246	    1.2600	   14.0357	    1.0281	   14.4300	
    7.0000	   17.3593	    0.6055	    8.8000	    1.2000	    7.6000	    0.0000	    0.0000	 1050.3573	 1048.7085	    0.5300	   18.6769	  123.7286	   13.7322	   31.7688	   11.6073	   50.0000	   12.8096	   13.2751	    5.9013	   89.7666	    1.8600	   16.9669	    1.9178	    0.0552	    0.9990	   16.0000	   10.7770	    1.2000	   15.7436	    0.9624	   15.1515	
    8.0000	   17.3600	    0.6842	    4.7200	    1.2700	    3.4500	    0.0000	    0.0000	  985.0123	  904.0234	    0.4136	   15.9997	  198.1287	   14.8443	   31.2350	   11.6464	   50.0000	    8.3141	    9.9953	    5.3301	   85.0820	    1.8600	   17.2797	    3.1623	    0.4601	    0.9990	   16.0000	    9.7242	    1.2700	   17.7698	    0.8057	   14.3164	
    9.0000	   17.3605	    0.7252	    2.4600	    0.8200	    1.6400	    0.0000	    0.0000	  319.6947	  282.2368	    0.2636	    2.9875	   66.4385	   13.2875	   16.7047	   11.5748	   50.0000	    9.1013	   35.0467	    3.3439	   77.6981	    1.8600	    2.4659	    1.2956	    0.5337	    0.9990	   16.0000	    1.5785	    0.8200	   15.6214	    1.4194	   22.1729	
   10.0000	   17.3612	    0.7965	    4.2800	    1.3200	    2.9600	    0.0000	    0.0000	  409.0802	  467.6900	    0.2672	    8.5898	  116.6726	   13.2243	   16.6005	   11.9914	   50.0000	   10.7575	   24.9984	    3.8371	  207.4288	    1.8600	    3.2572	    1.3303	    0.3680	    0.9990	   16.0000	    2.8108	    1.3200	   11.5883	    1.1886	   13.7741	
   11.0000	   17.3615	    0.8258	    1.7600	    1.2500	    0.5100	    0.0000	    0.0000	 1305.7085	  481.4072	    0.6973	    4.0538	  114.4263	   22.3829	   39.9063	   15.7021	   50.0000	   11.8460	   26.7435	    8.0302	   55.1324	    1.8600	   26.3888	   12.4317	    1.3434	    0.9990	   16.0000	   17.6072	    1.2500	   14.9875	    0.9705	   14.5455	
   12.0000	   17.3615	    0.8343	    0.5100	    0.1100	    0.4000	    0.0000	    0.0000	  -25.2938	  195.2132	   -0.0031	    0.4114	   48.7658	   17.6868	   21.3528	   15.2074	   50.0000	   13.6240	   75.8498	    4.1782	       NaN	    1.8600	    5.0422	    4.0095	    3.4228	    0.9990	   16.0000	    0.4494	    0.1100	       NaN	       NaN	       NaN	
   13.0000	   17.3622	    0.9003	    3.9600	    0.0900	    3.8700	    0.0000	    0.0000	  -15.1983	  576.3546	   -0.0032	    2.6694	   40.4941	   12.8934	   18.8139	   11.7701	   50.0000	   15.9787	   30.1308	    6.7081	       NaN	    1.8600	    5.5207	    0.8642	    0.2944	    0.9990	   16.0000	    0.4121	    0.0900	       NaN	       NaN	       NaN	
   14.0000	   17.3627	    0.9525	    3.1300	    1.1700	    1.9600	    0.0000	    0.0000	 1214.6434	 1043.2184	    0.5125	   17.0716	  317.4265	   17.9437	   37.8361	   12.5643	   50.0000	   15.8550	   16.5178	    6.4587	   67.9706	    1.8600	   22.9292	    5.9051	    0.3312	    0.9990	   16.0000	   13.8128	    1.1700	   16.5999	    0.9361	   15.5400	
   15.0000	   17.3630	    0.9870	    2.0700	    0.0800	    1.9900	    0.0000	    0.0000	    2.6366	  114.8482	    0.0192	    1.4571	   41.6805	   12.4539	   13.4366	   11.9003	   50.0000	   20.1729	  190.8990	    1.3000	  126.2501	    1.8600	    1.3802	    0.6572	    0.4048	    0.9990	   16.0000	    0.0867	    0.0800	       NaN	       NaN	       NaN	
   16.0000	   17.3640	    1.0740	    5.2200	    1.1200	    4.1000	    0.0000	    0.0000	 1070.6348	 1065.6958	    0.4822	   18.3788	  205.7084	   15.0694	   36.1696	   11.8287	   50.0000	   20.9699	   21.3856	    5.5190	   84.4228	    1.8600	   22.2115	    3.2419	    0.0552	    0.9990	   16.0000	   11.7355	    1.1200	   18.9268	    0.8577	   16.2338	
   17.0000	   17.3648	    1.1598	    5.1500	    1.1300	    4.0200	    0.0000	    0.0000	  985.8399	  988.6957	    0.4708	   17.0461	  193.1105	   14.7096	   31.1308	   11.8157	   50.0000	   20.0669	   22.0585	    5.2721	   89.1829	    1.8600	   18.3838	    3.4200	    0.3680	    0.9990	   16.0000	   11.6217	    1.1300	   15.8185	    1.0172	   16.0901	
   18.0000	   17.3660	    1.2862	    7.5800	    1.1500	    6.4300	    0.0000	    0.0000	  926.2800	  949.9160	    0.4612	   16.3425	  125.7101	   13.5746	   28.6310	   11.7701	   50.0000	   17.9641	   20.5532	    4.3426	   95.6774	    1.8600	   16.1940	    2.2491	    0.4417	    0.9990	   16.0000	   10.2528	    1.1500	   15.7947	    1.0010	   15.8103	
   19.0000	   17.3670	    1.3745	    5.3000	    1.3000	    4.0000	    0.0000	    0.0000	 1171.0043	 1114.1535	    0.5343	   19.8322	  218.4660	   15.5509	   33.2140	   11.9914	   50.0000	   11.9880	   11.6940	    6.3789	   77.7512	    1.8600	   19.6720	    3.9568	    0.3864	    0.9990	   16.0000	   15.8337	    1.3000	   12.4241	    1.1257	   13.9860	
   20.0000	   17.3680	    1.4748	    6.0200	    1.2000	    4.8200	    0.0000	    0.0000	 1293.3877	 1307.0733	    0.6020	   22.9676	  222.9135	   15.7157	   46.8460	   11.7440	   50.0000	   10.3226	    8.5832	    6.9421	   74.2002	    1.8600	   33.8233	    4.2557	    0.0552	    0.9990	   16.0000	   18.8982	    1.2000	   17.8977	    0.8466	   15.1515	
   21.0000	   17.3688	    1.5700	    5.7100	    1.5800	    4.1300	    0.0000	    0.0000	 1586.1908	 1545.1290	    0.5828	   26.3294	  270.5424	   17.6876	   50.4395	   11.9133	   50.0000	    9.9792	    7.0193	    8.0111	   61.8379	    1.8600	   35.3323	    5.7478	    0.0000	    0.9990	   16.0000	   26.5726	    1.5800	   13.2965	    0.8655	   11.5075	
   22.0000	   17.3697	    1.6437	    4.4200	    1.1200	    3.3000	    0.0000	    0.0000	 1013.1566	  975.2828	    0.4751	   15.7565	  207.4396	   15.2265	   33.1489	   11.9133	   50.0000	    9.7521	   10.8675	    5.3676	   81.5938	    1.8600	   20.3713	    3.8023	    0.3312	    0.9990	   16.0000	   12.1412	    1.1200	   16.7787	    0.9675	   16.2338	
   23.0000	   17.3703	    1.7137	    4.2000	    0.4400	    3.7600	    0.0000	    0.0000	  256.7037	  323.5454	    0.2978	    4.4784	   59.7235	   12.6209	   18.2280	   11.4511	   50.0000	   11.1888	   37.5844	    3.0514	  112.6117	    1.8600	    4.6006	    0.8269	    0.1840	    0.9990	   16.0000	    1.4111	    0.4400	   32.6030	    1.2674	   41.3223	
   24.0000	   17.3712	    1.8010	    5.2400	    0.9800	    4.2600	    0.0000	    0.0000	  892.6687	  843.2712	    0.3877	   14.9306	  166.5209	   14.1436	   26.5348	   11.8808	   50.0000	   11.7936	   15.1998	    5.0369	   97.0903	    1.8600	   12.2375	    2.1004	    0.1104	    0.9990	   16.0000	    7.6678	    0.9800	   15.9595	    1.1625	   18.5529	
   25.0000	   17.3725	    1.9385	    8.2500	    1.1800	    7.0700	    0.0000	    0.0000	  977.0884	  988.8279	    0.4658	   17.7066	  125.3877	   13.6240	   27.7847	   11.9459	   50.0000	   11.7233	   12.8852	    5.1529	   91.9684	    1.8600	   14.0041	    1.8527	    0.0000	    0.9990	   16.0000	   11.1535	    1.1800	   12.5558	    1.2272	   15.4083	
   26.0000	   17.3733	    2.0158	    4.6400	    1.3700	    3.2700	    0.0000	    0.0000	  957.3279	  897.3702	    0.4777	   16.0860	  201.8320	   14.8539	   29.0997	   11.9393	   50.0000	   10.8548	   13.1465	    4.9127	   81.3765	    1.8600	   15.4579	    3.2466	    0.4785	    0.9990	   16.0000	   10.6789	    1.3700	   14.4751	    0.9168	   13.2714	
   27.0000	   17.3740	    2.0855	    4.1800	    1.2800	    2.9000	    0.0000	    0.0000	 1120.8704	 1076.3677	    0.5264	   18.2767	  254.7882	   16.0059	   37.4065	   11.5878	   50.0000	   10.7479	   10.8523	    5.4180	   72.0804	    1.8600	   24.6222	    4.7612	    0.4785	    0.9990	   16.0000	   14.7114	    1.2800	   16.7368	    0.8487	   14.2045	
   28.0000	   17.3743	    2.1100	    1.4700	    0.4900	    0.9800	    0.0000	    0.0000	  211.6818	  106.1565	    0.2353	    0.3167	    3.3218	   12.6502	   15.3245	   11.9589	   50.0000	   10.7575	       NaN	    1.1539	  146.1103	    1.8600	    2.7419	    1.5818	    0.7361	    0.9990	   16.0000	    0.6490	    0.4900	       NaN	       NaN	       NaN	
   29.0000	   17.3752	    2.1893	    4.7600	    2.5200	    2.2400	    0.0000	    0.0000	  139.2714	  305.1299	    0.0451	    5.7144	   71.4617	   13.9341	   16.1318	   11.8808	   50.0000	   12.6156	   44.9349	   -0.6199	   75.8561	    1.8600	    1.5826	    0.6706	    0.3496	    0.9990	   16.0000	    1.9245	    2.5200	    8.2234	    0.8774	    7.2150	
   30.0000	   17.3760	    2.2760	    5.2000	    1.1700	    4.0300	    0.0000	    0.0000	 1129.0165	 1084.2795	    0.5070	   20.1878	  227.0856	   15.3245	   37.3414	   11.7050	   50.0000	   12.8755	   12.9058	    6.0813	   82.6919	    1.8600	   23.0396	    3.6542	    0.3496	    0.9990	   16.0000	   12.4662	    1.1700	   18.4816	    0.8408	   15.5400	
   31.0000	   17.3768	    2.3673	    5.4800	    1.1600	    4.3200	    0.0000	    0.0000	 1230.9706	 1204.2109	    0.6013	   21.0670	  224.0769	   15.5713	   39.8672	   11.6399	   50.0000	   14.8148	   13.3707	    6.1958	   77.9775	    1.8600	   25.2479	    3.9681	    0.4969	    0.9990	   16.0000	   14.9557	    1.1600	   16.8818	    0.9285	   15.6740	
   32.0000	   17.3777	    2.4482	    4.8500	    1.3400	    3.5100	    0.0000	    0.0000	  961.9745	  909.8157	    0.4047	   15.4009	  185.5201	   14.9413	   26.4176	   11.6008	   50.0000	   14.2248	   16.9922	    5.2842	   92.3680	    1.8600	   11.6854	    2.9017	    0.4233	    0.9990	   16.0000	    9.8788	    1.3400	   11.8288	    1.1471	   13.5685	
   33.0000	   17.3785	    2.5285	    4.8200	    0.9900	    3.8300	    0.0000	    0.0000	  813.6690	  862.0032	    0.3459	   14.9525	  181.8255	   13.9341	   24.7901	   11.8222	   50.0000	   11.8285	   14.9135	    3.1613	  117.9347	    1.8600	   11.1702	    2.1353	    0.3680	    0.9990	   16.0000	    6.2800	    0.9900	   17.7868	    1.0325	   18.3655	
   34.0000	   17.3787	    2.5493	    1.2500	    1.1400	    0.1100	    0.0000	    0.0000	 1024.7407	   46.4735	    0.5272	    0.0119	  -24.7370	   20.6950	   30.8965	   21.7369	   50.0000	   11.7936	       NaN	    6.7916	   61.2939	    1.8600	   18.0894	   10.4417	    1.3986	    0.9990	   16.0000	   11.7957	    1.1400	   15.3355	    1.0400	   15.9490	
   35.0000	   17.3788	    2.5707	    1.2800	    0.0900	    1.1900	    0.0000	    0.0000	  -40.2608	  643.9291	    0.0000	   10.2660	  481.2192	   16.1234	   24.3734	   13.1632	   50.0000	   13.8889	   23.4417	    6.3089	       NaN	    1.8600	   11.1518	    4.3654	    0.6809	    0.9990	   16.0000	    0.7949	    0.0900	       NaN	       NaN	       NaN	
   36.0000	   17.3790	    2.5787	    0.4800	    0.0900	    0.3900	    0.0000	    0.0000	   -8.6766	   69.1836	   -0.0053	    0.0829	   11.0191	   14.0670	   15.2855	   13.3064	   50.0000	   15.7343	       NaN	    1.4632	       NaN	    1.8600	    2.1899	    1.1785	    0.5337	    0.9990	   16.0000	    0.1669	    0.0900	       NaN	       NaN	       NaN	
   37.0000	   17.3792	    2.6017	    1.3800	    0.1500	    1.2300	    0.0000	    0.0000	   18.7066	  185.3936	    0.1098	    3.9124	  165.3318	   12.8870	   16.0537	   12.3169	   50.0000	   17.9795	  105.4001	    4.0387	   99.4186	    1.8600	    6.9008	    1.5678	    0.4417	    0.9990	   16.0000	    0.7895	    0.1500	       NaN	       NaN	       NaN	
   38.0000	   17.3793	    2.6050	    0.2000	    0.0900	    0.1100	    0.0000	    0.0000	    4.8633	   -1.3540	    0.0347	    0.0115	   -6.9560	   12.4732	   12.8117	   12.2193	   50.0000	   19.4018	       NaN	    0.6706	       Inf	    1.8600	    1.5274	    1.0977	    0.7913	    0.9990	   16.0000	    0.1048	    0.0900	       NaN	       NaN	       NaN	
   39.0000	   17.3803	    2.7102	    6.3100	    1.6700	    4.6400	    0.0000	    0.0000	 1194.6747	 1229.3703	    0.3535	   21.4643	  200.7367	   15.1704	   39.2683	   11.6854	   50.0000	   21.6520	   19.1414	    6.6263	   79.4437	    1.8600	   24.2173	    3.1760	    0.1288	    0.9990	   16.0000	   14.2553	    1.6700	   16.9883	    0.6409	   10.8873	
   40.0000	   17.3810	    2.7770	    4.0100	    1.0100	    3.0000	    0.0000	    0.0000	  962.0194	  970.1109	    0.4910	   16.8943	  245.4358	   15.1566	   30.3887	   11.8482	   50.0000	   23.3350	   26.1424	    5.1180	   95.9535	    1.8600	   15.7339	    3.0906	    0.0736	    0.9990	   16.0000	    9.1505	    1.0100	   17.1946	    1.0469	   18.0018	
   41.0000	   17.3817	    2.8405	    3.8100	    1.2500	    2.5600	    0.0000	    0.0000	 1329.9008	 1198.0226	    0.5648	   19.1445	  292.5942	   18.3102	   38.7996	   12.2258	   50.0000	   21.9691	   19.9300	    7.2097	   62.4612	    1.8600	   21.8803	    5.5441	    0.0552	    0.9990	   16.0000	   17.2695	    1.2500	   12.6699	    1.1480	   14.5455	
   42.0000	   17.3817	    2.8508	    0.6200	    0.4700	    0.1500	    0.0000	    0.0000	  326.4383	  -12.9822	    0.3487	   -0.0034	  -34.0693	   14.7367	   18.5144	   12.2714	   50.0000	   22.9397	       NaN	    5.5590	  102.7228	    1.8600	    6.8824	    5.2684	    1.5458	    0.9990	   16.0000	    2.4291	    0.4700	   28.3333	    1.3653	   38.6847	
   43.0000	   17.3822	    2.9032	    3.1400	    0.5600	    2.5800	    0.0000	    0.0000	  319.8476	  685.6431	    0.0741	   10.8189	  205.3132	   13.8632	   20.2591	   12.1932	   50.0000	   24.8344	   39.3655	    1.7710	  114.9436	    1.8600	   11.9246	    3.0182	    0.1840	    0.9990	   16.0000	    5.8741	    0.5600	   20.3004	    1.5994	   32.4675	
   44.0000	   17.3825	    2.9227	    1.1700	    0.7700	    0.4000	    0.0000	    0.0000	  875.3958	  179.7158	    0.4872	    0.3794	   -5.5278	   20.1788	   33.2401	   13.1307	   50.0000	   25.4357	  153.8215	    8.9825	   63.8716	    1.8600	   21.3650	   12.1837	    1.1593	    0.9990	   16.0000	   10.1544	    0.7700	   21.0402	    1.1223	   23.6128	
   45.0000	   17.3832	    2.9995	    4.6100	    0.1000	    4.5100	    0.0000	    0.0000	    1.0777	  779.6849	   -0.0013	   14.0640	  183.0625	   12.6689	   14.2048	   11.7701	   50.0000	   23.2558	   32.4169	    0.0092	  383.5020	    1.8600	   11.6302	    1.2180	    0.1472	    0.9990	   16.0000	    0.9697	    0.1000	       NaN	       NaN	       NaN	
   46.0000	   17.3835	    3.0267	    1.6300	    1.1200	    0.5100	    0.0000	    0.0000	 1205.8544	  434.9720	    0.6635	    3.2287	   94.4252	   21.9539	   38.4871	   15.2074	   50.0000	   17.7440	   44.3353	    8.0939	   57.0096	    1.8600	   25.3215	   12.0449	    1.1409	    0.9990	   16.0000	   15.7185	    1.1200	   16.1094	    1.0077	   16.2338	
   47.0000	   17.3835	    3.0373	    0.6400	    0.0900	    0.5500	    0.0000	    0.0000	  -24.7448	  249.8489	   -0.0115	    0.8398	   79.8141	   16.6381	   20.7409	   14.4197	   50.0000	   18.9723	   82.5283	    4.4417	       NaN	    1.8600	    6.7904	    2.8768	    1.3250	    0.9990	   16.0000	    0.4970	    0.0900	       NaN	       NaN	       NaN	
   48.0000	   17.3837	    3.0482	    0.6500	    0.1300	    0.5200	    0.0000	    0.0000	   -5.7994	  155.6506	   -0.0519	    1.2557	  120.7014	   15.1443	   17.0562	   13.5734	   50.0000	   20.8173	  145.3559	    3.3228	   63.6531	    1.8600	    7.6369	    2.8538	    0.5521	    0.9990	   16.0000	    0.7940	    0.1300	       NaN	       NaN	       NaN	
   49.0000	   17.3838	    3.0635	    0.9200	    0.0900	    0.8300	    0.0000	    0.0000	  -10.8850	  166.8301	   -0.0027	    0.2676	   17.6226	   13.5663	   15.5329	   12.4927	   50.0000	   26.6272	  173.4646	    3.4585	       NaN	    1.8600	    1.7298	    0.9119	    0.4601	    0.9990	   16.0000	    0.1260	    0.0900	       NaN	       NaN	       NaN	
   50.0000	   17.3843	    3.1122	    2.9200	    0.5300	    2.3900	    0.0000	    0.0000	  146.7709	  303.5984	    0.2379	    4.9737	   97.3114	   13.0733	   17.7072	   11.6985	   50.0000	   28.3019	  101.3154	    4.0064	   83.5616	    1.8600	    5.9623	    1.3810	    0.1104	    0.9990	   16.0000	    2.4849	    0.5300	   23.9947	    1.4297	   34.3053	
   51.0000	   17.3857	    3.2537	    8.4900	    1.2100	    7.2800	    0.0000	    0.0000	 1410.7991	 1391.5198	    0.6074	   24.5217	  169.0058	   14.9991	   44.9971	   11.6920	   50.0000	   29.8359	   23.3029	    8.2349	   70.0275	    1.8600	   28.6891	    3.1046	    0.0920	    0.9990	   16.0000	   19.1194	    1.2100	   15.0052	    1.0014	   15.0263	
   52.0000	   17.3867	    3.3485	    5.6900	    1.1800	    4.5100	    0.0000	    0.0000	  919.0560	  876.5999	    0.3983	   15.5888	  160.1810	   14.1233	   26.6389	   11.5813	   50.0000	   22.8245	   28.2983	    5.0767	   93.7701	    1.8600	   12.4583	    2.3094	    0.2760	    0.9990	   16.0000	    8.3743	    1.1800	   14.8768	    1.0357	   15.4083	
   53.0000	   17.3875	    3.4287	    4.8100	    1.2500	    3.5600	    0.0000	    0.0000	 1017.8966	 1001.6817	    0.4565	   17.7254	  215.4121	   15.1167	   29.5945	   11.7310	   50.0000	   20.0573	   21.7622	    5.2645	   84.0411	    1.8600	   13.9857	    2.9238	    0.3312	    0.9990	   16.0000	   10.2537	    1.2500	   13.6396	    1.0664	   14.5455	
   54.0000	   17.3882	    3.4977	    4.1400	    1.2100	    2.9300	    0.0000	    0.0000	 1048.7347	 1000.3521	    0.4558	   16.7599	  236.2920	   15.5977	   33.3833	   11.7115	   50.0000	   10.9539	   11.9008	    5.4891	   82.5806	    1.8600	   19.3223	    3.9930	    0.2944	    0.9990	   16.0000	   11.3196	    1.2100	   17.0698	    0.8803	   15.0263	
